#Temperature (K)	Pressure (MPa)	Density (l, kg/m3)	Volume (l, m3/kg)	Internal Energy (l, kJ/mol)	Enthalpy (l, kJ/mol)	Entropy (l, J/mol*K)	Cv (l, J/mol*K)	Cp (l, J/mol*K)	Sound Spd. (l, m/s)	Joule-Thomson (l, K/MPa)	Viscosity (l, uPa*s)	Therm. Cond. (l, W/m*K)	Surf. Tension (l, N/m)	Density (v, kg/m3)	Volume (v, m3/kg)	Internal Energy (v, kJ/mol)	Enthalpy (v, kJ/mol)	Entropy (v, J/mol*K)	Cv (v, J/mol*K)	Cp (v, J/mol*K)	Sound Spd. (v, m/s)	Joule-Thomson (v, K/MPa)	Viscosity (v, uPa*s)	Therm. Cond. (v, W/m*K)
220.00	0.59913	1166.1	0.00085753	3.7943	3.8169	24.279	42.682	86.338	951.21	-0.13180	239.29	0.17290	0.015693	15.817	0.063221	17.329	18.996	93.276	28.120	40.943	223.15	25.084	11.062	0.011424
220.50	0.61180	1164.3	0.00085887	3.8371	3.8602	24.473	42.651	86.399	947.61	-0.12985	237.30	0.17228	0.015576	16.138	0.061965	17.335	19.004	93.151	28.184	41.090	223.19	24.931	11.087	0.011470
221.00	0.62467	1162.5	0.00086023	3.8799	3.9036	24.667	42.621	86.462	944.00	-0.12788	235.33	0.17166	0.015460	16.464	0.060738	17.341	19.011	93.028	28.249	41.238	223.23	24.779	11.112	0.011516
221.50	0.63774	1160.6	0.00086159	3.9228	3.9470	24.861	42.591	86.526	940.39	-0.12589	233.37	0.17103	0.015343	16.795	0.059541	17.347	19.019	92.904	28.314	41.387	223.27	24.628	11.137	0.011563
222.00	0.65102	1158.8	0.00086295	3.9657	3.9904	25.055	42.560	86.592	936.79	-0.12386	231.44	0.17041	0.015227	17.131	0.058372	17.353	19.026	92.782	28.380	41.539	223.31	24.480	11.163	0.011610
222.50	0.66450	1157.0	0.00086433	4.0086	4.0338	25.248	42.530	86.660	933.18	-0.12180	229.52	0.16979	0.015111	17.473	0.057231	17.359	19.033	92.659	28.446	41.692	223.35	24.332	11.188	0.011658
223.00	0.67819	1155.1	0.00086571	4.0515	4.0773	25.441	42.501	86.729	929.58	-0.11971	227.63	0.16918	0.014995	17.820	0.056118	17.365	19.040	92.537	28.512	41.848	223.38	24.186	11.213	0.011705
223.50	0.69210	1153.3	0.00086711	4.0945	4.1209	25.633	42.471	86.800	925.97	-0.11759	225.75	0.16856	0.014879	18.172	0.055030	17.371	19.047	92.416	28.579	42.005	223.41	24.042	11.239	0.011753
224.00	0.70621	1151.4	0.00086851	4.1374	4.1644	25.826	42.442	86.873	922.37	-0.11544	223.89	0.16794	0.014763	18.530	0.053968	17.376	19.054	92.295	28.646	42.165	223.44	23.899	11.264	0.011802
224.50	0.72054	1149.5	0.00086991	4.1804	4.2080	26.018	42.412	86.948	918.76	-0.11326	222.04	0.16732	0.014648	18.893	0.052930	17.382	19.060	92.175	28.714	42.326	223.46	23.758	11.290	0.011851
225.00	0.73509	1147.7	0.00087133	4.2235	4.2517	26.209	42.383	87.024	915.16	-0.11104	220.21	0.16671	0.014533	19.261	0.051917	17.387	19.067	92.055	28.782	42.489	223.49	23.617	11.316	0.011900
225.50	0.74985	1145.8	0.00087276	4.2665	4.2953	26.401	42.354	87.102	911.56	-0.10879	218.40	0.16609	0.014418	19.636	0.050927	17.393	19.073	91.935	28.851	42.655	223.51	23.479	11.341	0.011949
226.00	0.76484	1143.9	0.00087419	4.3096	4.3390	26.592	42.326	87.181	907.95	-0.10651	216.61	0.16547	0.014303	20.016	0.049960	17.398	19.080	91.816	28.920	42.822	223.52	23.341	11.367	0.011999
226.50	0.78004	1142.0	0.00087563	4.3527	4.3828	26.783	42.297	87.263	904.35	-0.10420	214.83	0.16486	0.014188	20.402	0.049015	17.403	19.086	91.697	28.989	42.992	223.54	23.205	11.393	0.012049
227.00	0.79548	1140.1	0.00087708	4.3959	4.4266	26.973	42.269	87.346	900.74	-0.10185	213.07	0.16425	0.014073	20.794	0.048092	17.409	19.092	91.579	29.059	43.164	223.55	23.070	11.419	0.012100
227.50	0.81114	1138.2	0.00087855	4.4390	4.4704	27.163	42.241	87.431	897.14	-0.099465	211.33	0.16363	0.013959	21.191	0.047189	17.414	19.098	91.461	29.129	43.338	223.56	22.937	11.445	0.012151
228.00	0.82703	1136.3	0.00088001	4.4823	4.5143	27.353	42.213	87.518	893.53	-0.097044	209.60	0.16302	0.013845	21.595	0.046307	17.419	19.104	91.344	29.200	43.515	223.57	22.805	11.471	0.012202
228.50	0.84314	1134.4	0.00088149	4.5255	4.5582	27.543	42.185	87.607	889.92	-0.094588	207.89	0.16241	0.013731	22.005	0.045445	17.424	19.110	91.227	29.272	43.693	223.58	22.674	11.497	0.012254
229.00	0.85950	1132.5	0.00088298	4.5688	4.6022	27.732	42.157	87.698	886.31	-0.092094	206.19	0.16180	0.013617	22.421	0.044602	17.429	19.116	91.110	29.343	43.875	223.58	22.544	11.523	0.012306
229.50	0.87609	1130.6	0.00088448	4.6121	4.6462	27.921	42.130	87.791	882.70	-0.089563	204.51	0.16119	0.013504	22.843	0.043777	17.433	19.121	90.994	29.415	44.058	223.58	22.415	11.550	0.012358
230.00	0.89291	1128.7	0.00088599	4.6554	4.6902	28.110	42.103	87.886	879.09	-0.086994	202.85	0.16058	0.013390	23.271	0.042971	17.438	19.127	90.878	29.488	44.244	223.57	22.288	11.576	0.012411
230.50	0.90997	1126.8	0.00088751	4.6988	4.7343	28.299	42.076	87.983	875.48	-0.084387	201.19	0.15997	0.013277	23.706	0.042183	17.443	19.132	90.762	29.561	44.432	223.57	22.162	11.603	0.012464
231.00	0.92728	1124.8	0.00088903	4.7422	4.7785	28.487	42.049	88.082	871.86	-0.081739	199.56	0.15936	0.013164	24.147	0.041412	17.447	19.137	90.647	29.635	44.623	223.56	22.037	11.629	0.012518
231.50	0.94483	1122.9	0.00089057	4.7856	4.8226	28.675	42.023	88.183	868.25	-0.079052	197.94	0.15875	0.013052	24.595	0.040658	17.452	19.142	90.532	29.709	44.817	223.55	21.913	11.656	0.012572
232.00	0.96262	1120.9	0.00089212	4.8291	4.8669	28.863	41.996	88.287	864.63	-0.076323	196.33	0.15814	0.012939	25.050	0.039920	17.456	19.147	90.417	29.783	45.013	223.54	21.790	11.683	0.012627
232.50	0.98067	1119.0	0.00089368	4.8726	4.9112	29.051	41.970	88.392	861.01	-0.073553	194.74	0.15753	0.012827	25.511	0.039199	17.461	19.152	90.303	29.858	45.212	223.52	21.669	11.709	0.012682
233.00	0.99896	1117.0	0.00089524	4.9162	4.9555	29.238	41.944	88.500	857.39	-0.070741	193.16	0.15692	0.012714	25.979	0.038493	17.465	19.157	90.189	29.934	45.414	223.50	21.548	11.736	0.012737
233.50	1.0175	1115.0	0.00089682	4.9597	4.9999	29.426	41.918	88.610	853.76	-0.067886	191.60	0.15632	0.012602	26.454	0.037802	17.469	19.162	90.075	30.010	45.618	223.48	21.429	11.763	0.012793
234.00	1.0363	1113.1	0.00089841	5.0034	5.0443	29.612	41.893	88.722	850.14	-0.064986	190.05	0.15571	0.012491	26.936	0.037125	17.473	19.166	89.962	30.086	45.825	223.46	21.311	11.790	0.012850
234.50	1.0554	1111.1	0.00090001	5.0470	5.0888	29.799	41.868	88.837	846.51	-0.062042	188.51	0.15511	0.012379	27.425	0.036464	17.477	19.171	89.849	30.163	46.035	223.43	21.193	11.818	0.012907
235.00	1.0747	1109.1	0.00090162	5.0908	5.1334	29.986	41.843	88.954	842.88	-0.059053	186.99	0.15450	0.012268	27.921	0.035816	17.481	19.175	89.736	30.241	46.248	223.40	21.077	11.845	0.012964
235.50	1.0942	1107.1	0.00090325	5.1345	5.1780	30.172	41.818	89.073	839.24	-0.056017	185.48	0.15390	0.012157	28.424	0.035182	17.485	19.179	89.624	30.319	46.464	223.37	20.962	11.872	0.013022
236.00	1.1141	1105.1	0.00090488	5.1783	5.2227	30.358	41.793	89.195	835.61	-0.052934	183.99	0.15329	0.012046	28.935	0.034561	17.488	19.183	89.511	30.397	46.684	223.33	20.848	11.900	0.013081
236.50	1.1342	1103.1	0.00090653	5.2221	5.2674	30.544	41.769	89.319	831.97	-0.049803	182.51	0.15269	0.011935	29.453	0.033953	17.492	19.187	89.399	30.476	46.906	223.30	20.735	11.928	0.013140
237.00	1.1545	1101.1	0.00090818	5.2660	5.3122	30.730	41.745	89.446	828.32	-0.046622	181.04	0.15209	0.011824	29.978	0.033358	17.495	19.190	89.288	30.555	47.131	223.26	20.622	11.955	0.013199
237.50	1.1752	1099.1	0.00090985	5.3099	5.3570	30.915	41.721	89.575	824.67	-0.043392	179.58	0.15148	0.011714	30.511	0.032775	17.499	19.194	89.176	30.635	47.360	223.21	20.511	11.983	0.013259
238.00	1.1961	1097.1	0.00091153	5.3539	5.4019	31.101	41.697	89.707	821.02	-0.040110	178.14	0.15088	0.011604	31.052	0.032204	17.502	19.197	89.065	30.715	47.592	223.17	20.401	12.011	0.013320
238.50	1.2173	1095.0	0.00091323	5.3979	5.4469	31.286	41.674	89.842	817.37	-0.036777	176.71	0.15028	0.011494	31.601	0.031645	17.505	19.201	88.954	30.796	47.828	223.12	20.292	12.039	0.013381
239.00	1.2387	1093.0	0.00091493	5.4420	5.4919	31.471	41.650	89.980	813.71	-0.033390	175.29	0.14968	0.011384	32.158	0.031097	17.509	19.204	88.843	30.878	48.067	223.07	20.183	12.067	0.013443
239.50	1.2605	1090.9	0.00091665	5.4861	5.5370	31.655	41.628	90.120	810.05	-0.029950	173.88	0.14908	0.011275	32.722	0.030560	17.512	19.207	88.732	30.960	48.309	223.01	20.076	12.096	0.013505
240.00	1.2825	1088.9	0.00091838	5.5303	5.5821	31.840	41.605	90.263	806.38	-0.026454	172.49	0.14848	0.011165	33.295	0.030034	17.515	19.210	88.622	31.042	48.555	222.96	19.969	12.124	0.013568
240.50	1.3048	1086.8	0.00092013	5.5745	5.6273	32.025	41.582	90.409	802.71	-0.022902	171.11	0.14788	0.011056	33.876	0.029519	17.517	19.212	88.511	31.125	48.805	222.90	19.864	12.153	0.013632
241.00	1.3274	1084.7	0.00092189	5.6188	5.6726	32.209	41.560	90.559	799.03	-0.019292	169.73	0.14728	0.010948	34.466	0.029014	17.520	19.215	88.401	31.209	49.059	222.84	19.759	12.182	0.013696
241.50	1.3502	1082.7	0.00092366	5.6631	5.7180	32.393	41.538	90.711	795.35	-0.015624	168.38	0.14668	0.010839	35.064	0.028520	17.523	19.217	88.291	31.293	49.317	222.77	19.655	12.211	0.013761
242.00	1.3734	1080.6	0.00092544	5.7075	5.7634	32.577	41.517	90.866	791.67	-0.011895	167.03	0.14608	0.010730	35.670	0.028035	17.525	19.220	88.182	31.378	49.579	222.70	19.552	12.240	0.013827
242.50	1.3968	1078.5	0.00092724	5.7519	5.8089	32.761	41.495	91.024	787.98	-0.0081057	165.69	0.14548	0.010622	36.285	0.027559	17.528	19.222	88.072	31.463	49.845	222.63	19.450	12.269	0.013893
243.00	1.4206	1076.4	0.00092905	5.7964	5.8545	32.945	41.474	91.186	784.28	-0.0042536	164.37	0.14488	0.010514	36.909	0.027094	17.530	19.224	87.962	31.549	50.115	222.56	19.348	12.298	0.013960
243.50	1.4446	1074.3	0.00093088	5.8409	5.9001	33.128	41.453	91.351	780.58	-0.00033753	163.05	0.14429	0.010407	37.542	0.026637	17.532	19.226	87.853	31.635	50.390	222.48	19.248	12.328	0.014028
244.00	1.4690	1072.1	0.00093272	5.8855	5.9458	33.312	41.433	91.519	776.87	0.0036438	161.75	0.14369	0.010299	38.184	0.026189	17.534	19.227	87.744	31.723	50.669	222.40	19.148	12.357	0.014096
244.50	1.4936	1070.0	0.00093458	5.9302	5.9916	33.495	41.413	91.691	773.16	0.0076919	160.46	0.14309	0.010192	38.835	0.025750	17.536	19.229	87.635	31.810	50.953	222.32	19.049	12.387	0.014165
245.00	1.5185	1067.9	0.00093645	5.9749	6.0375	33.678	41.393	91.866	769.44	0.011808	159.18	0.14249	0.010085	39.496	0.025319	17.538	19.230	87.526	31.899	51.242	222.24	18.950	12.417	0.014235
245.50	1.5438	1065.7	0.00093834	6.0197	6.0834	33.861	41.373	92.045	765.71	0.015994	157.91	0.14190	0.0099779	40.166	0.024897	17.540	19.231	87.417	31.988	51.535	222.15	18.853	12.447	0.014306
246.00	1.5693	1063.6	0.00094024	6.0645	6.1294	34.044	41.354	92.228	761.97	0.020252	156.65	0.14130	0.0098713	40.845	0.024483	17.541	19.232	87.308	32.078	51.834	222.06	18.756	12.477	0.014377
246.50	1.5952	1061.4	0.00094216	6.1094	6.1756	34.227	41.335	92.414	758.23	0.024582	155.40	0.14071	0.0097650	41.535	0.024076	17.543	19.233	87.199	32.169	52.138	221.96	18.660	12.508	0.014450
247.00	1.6214	1059.2	0.00094409	6.1544	6.2217	34.410	41.316	92.604	754.48	0.028988	154.16	0.14011	0.0096589	42.234	0.023678	17.544	19.234	87.090	32.261	52.447	221.86	18.564	12.538	0.014523
247.50	1.6478	1057.0	0.00094604	6.1994	6.2680	34.593	41.298	92.798	750.72	0.033469	152.93	0.13952	0.0095530	42.943	0.023287	17.546	19.234	86.982	32.353	52.761	221.76	18.470	12.569	0.014597
248.00	1.6746	1054.8	0.00094801	6.2445	6.3144	34.775	41.280	92.996	746.95	0.038029	151.71	0.13892	0.0094473	43.662	0.022903	17.547	19.235	86.873	32.446	53.081	221.66	18.375	12.600	0.014672
248.50	1.7018	1052.6	0.00094999	6.2897	6.3608	34.958	41.262	93.199	743.17	0.042669	150.50	0.13833	0.0093419	44.392	0.022527	17.548	19.235	86.765	32.540	53.407	221.55	18.282	12.632	0.014748
249.00	1.7292	1050.4	0.00095199	6.3349	6.4074	35.140	41.245	93.405	739.39	0.047390	149.30	0.13773	0.0092367	45.132	0.022157	17.549	19.235	86.656	32.635	53.739	221.44	18.189	12.663	0.014824
249.50	1.7570	1048.2	0.00095401	6.3802	6.4540	35.323	41.229	93.616	735.59	0.052196	148.10	0.13714	0.0091318	45.883	0.021795	17.549	19.235	86.547	32.731	54.077	221.33	18.097	12.695	0.014902
250.00	1.7850	1046.0	0.00095605	6.4256	6.5007	35.505	41.212	93.831	731.78	0.057087	146.92	0.13655	0.0090271	46.644	0.021439	17.550	19.234	86.439	32.827	54.421	221.22	18.005	12.726	0.014981
250.50	1.8135	1043.7	0.00095810	6.4710	6.5475	35.687	41.196	94.051	727.97	0.062066	145.75	0.13595	0.0089227	47.416	0.021090	17.550	19.234	86.330	32.925	54.771	221.10	17.914	12.758	0.015061
251.00	1.8422	1041.5	0.00096018	6.5166	6.5944	35.869	41.181	94.275	724.14	0.067136	144.59	0.13536	0.0088185	48.200	0.020747	17.551	19.233	86.222	33.023	55.129	220.97	17.823	12.791	0.015141
251.50	1.8713	1039.2	0.00096227	6.5622	6.6414	36.052	41.166	94.504	720.29	0.072297	143.43	0.13477	0.0087145	48.995	0.020410	17.551	19.232	86.113	33.122	55.492	220.85	17.733	12.823	0.015223
252.00	1.9007	1036.9	0.00096438	6.6079	6.6885	36.234	41.152	94.738	716.44	0.077553	142.29	0.13417	0.0086108	49.801	0.020080	17.551	19.231	86.005	33.223	55.863	220.72	17.644	12.856	0.015306
252.50	1.9304	1034.6	0.00096651	6.6536	6.7357	36.416	41.138	94.977	712.57	0.082906	141.15	0.13358	0.0085074	50.619	0.019756	17.551	19.230	85.896	33.324	56.241	220.59	17.555	12.889	0.015390
253.00	1.9605	1032.4	0.00096866	6.6994	6.7830	36.598	41.125	95.221	708.69	0.088358	140.02	0.13299	0.0084042	51.448	0.019437	17.551	19.228	85.788	33.426	56.626	220.45	17.466	12.922	0.015475
253.50	1.9910	1030.0	0.00097083	6.7454	6.8304	36.780	41.113	95.470	704.79	0.093912	138.90	0.13240	0.0083012	52.290	0.019124	17.551	19.226	85.679	33.529	57.019	220.31	17.378	12.955	0.015561
254.00	2.0217	1027.7	0.00097303	6.7914	6.8780	36.962	41.101	95.725	700.88	0.099570	137.79	0.13180	0.0081986	53.144	0.018817	17.550	19.224	85.570	33.633	57.419	220.17	17.291	12.989	0.015648
254.50	2.0529	1025.4	0.00097524	6.8375	6.9256	37.144	41.090	95.985	696.96	0.10533	136.69	0.13121	0.0080962	54.010	0.018515	17.549	19.222	85.461	33.738	57.828	220.02	17.204	13.023	0.015737
255.00	2.0843	1023.0	0.00097748	6.8836	6.9733	37.326	41.079	96.251	693.01	0.11121	135.59	0.13062	0.0079940	54.889	0.018219	17.549	19.220	85.352	33.844	58.244	219.87	17.117	13.057	0.015827
255.50	2.1162	1020.7	0.00097973	6.9299	7.0211	37.508	41.070	96.522	689.05	0.11720	134.51	0.13003	0.0078921	55.780	0.017927	17.548	19.217	85.243	33.951	58.669	219.72	17.031	13.092	0.015918
256.00	2.1483	1018.3	0.00098201	6.9763	7.0691	37.690	41.061	96.800	685.08	0.12330	133.43	0.12944	0.0077905	56.685	0.017641	17.547	19.215	85.134	34.058	59.103	219.56	16.946	13.126	0.016011
256.50	2.1809	1015.9	0.00098431	7.0227	7.1172	37.872	41.054	97.084	681.08	0.12952	132.36	0.12885	0.0076891	57.603	0.017360	17.545	19.212	85.024	34.167	59.545	219.40	16.861	13.161	0.016105
257.00	2.2138	1013.5	0.00098664	7.0692	7.1654	38.055	41.047	97.374	677.07	0.13586	131.29	0.12826	0.0075880	58.534	0.017084	17.544	19.208	84.915	34.277	59.996	219.24	16.776	13.197	0.016200
257.50	2.2470	1011.1	0.00098899	7.1159	7.2137	38.237	41.041	97.670	673.04	0.14232	130.24	0.12767	0.0074872	59.479	0.016813	17.542	19.205	84.805	34.388	60.457	219.07	16.692	13.232	0.016297
258.00	2.2806	1008.7	0.00099136	7.1626	7.2621	38.419	41.036	97.974	668.99	0.14891	129.19	0.12707	0.0073867	60.438	0.016546	17.541	19.201	84.696	34.499	60.928	218.90	16.608	13.268	0.016395
258.50	2.3146	1006.3	0.00099376	7.2094	7.3107	38.601	41.033	98.284	664.92	0.15564	128.15	0.12648	0.0072864	61.411	0.016284	17.539	19.198	84.586	34.612	61.408	218.73	16.524	13.305	0.016495
259.00	2.3490	1003.8	0.00099619	7.2564	7.3593	38.784	41.030	98.601	660.83	0.16250	127.12	0.12589	0.0071864	62.398	0.016026	17.537	19.194	84.475	34.725	61.899	218.55	16.442	13.341	0.016597
259.50	2.3837	1001.4	0.00099864	7.3034	7.4082	38.966	41.029	98.925	656.72	0.16949	126.09	0.12530	0.0070867	63.400	0.015773	17.535	19.189	84.365	34.840	62.400	218.37	16.359	13.378	0.016700
260.00	2.4188	998.89	0.0010011	7.3505	7.4571	39.148	41.029	99.258	652.58	0.17663	125.07	0.12471	0.0069873	64.417	0.015524	17.532	19.185	84.254	34.955	62.912	218.19	16.277	13.415	0.016805
260.50	2.4543	996.39	0.0010036	7.3978	7.5062	39.331	41.030	99.598	648.43	0.18391	124.06	0.12412	0.0068882	65.449	0.015279	17.530	19.180	84.144	35.072	63.435	218.00	16.195	13.453	0.016911
261.00	2.4901	993.89	0.0010062	7.4451	7.5554	39.514	41.033	99.946	644.25	0.19134	123.05	0.12353	0.0067893	66.497	0.015038	17.527	19.175	84.033	35.189	63.970	217.81	16.114	13.491	0.017019
261.50	2.5264	991.36	0.0010087	7.4926	7.6047	39.696	41.037	100.30	640.06	0.19893	122.05	0.12294	0.0066908	67.560	0.014802	17.524	19.170	83.921	35.308	64.517	217.61	16.033	13.529	0.017129
262.00	2.5630	988.83	0.0010113	7.5402	7.6542	39.879	41.043	100.67	635.84	0.20667	121.06	0.12235	0.0065925	68.640	0.014569	17.521	19.164	83.810	35.427	65.077	217.41	15.952	13.568	0.017242
262.50	2.6000	986.27	0.0010139	7.5879	7.7039	40.062	41.050	101.04	631.60	0.21458	120.07	0.12176	0.0064945	69.735	0.014340	17.517	19.158	83.698	35.547	65.649	217.21	15.872	13.607	0.017356
263.00	2.6374	983.70	0.0010166	7.6357	7.7537	40.245	41.058	101.42	627.34	0.22265	119.09	0.12117	0.0063969	70.848	0.014115	17.514	19.152	83.585	35.668	66.235	217.01	15.792	13.647	0.017472
263.50	2.6752	981.12	0.0010192	7.6836	7.8036	40.429	41.069	101.82	623.05	0.23090	118.12	0.12058	0.0062995	71.977	0.013893	17.510	19.146	83.473	35.791	66.834	216.80	15.712	13.687	0.017590
264.00	2.7134	978.51	0.0010220	7.7317	7.8537	40.612	41.080	102.22	618.75	0.23932	117.15	0.11999	0.0062024	73.124	0.013675	17.506	19.139	83.360	35.914	67.448	216.59	15.633	13.727	0.017710
264.50	2.7519	975.89	0.0010247	7.7798	7.9040	40.796	41.094	102.63	614.42	0.24792	116.19	0.11939	0.0061057	74.288	0.013461	17.502	19.132	83.247	36.038	68.077	216.37	15.554	13.768	0.017833
265.00	2.7909	973.25	0.0010275	7.8282	7.9544	40.979	41.109	103.06	610.07	0.25672	115.24	0.11880	0.0060092	75.471	0.013250	17.498	19.125	83.133	36.164	68.721	216.15	15.476	13.810	0.017957
265.50	2.8303	970.60	0.0010303	7.8766	8.0049	41.163	41.125	103.49	605.70	0.26570	114.29	0.11821	0.0059131	76.672	0.013043	17.493	19.118	83.019	36.290	69.381	215.93	15.397	13.851	0.018085
266.00	2.8701	967.92	0.0010331	7.9252	8.0557	41.348	41.144	103.94	601.31	0.27489	113.34	0.11762	0.0058173	77.891	0.012838	17.488	19.110	82.905	36.418	70.058	215.70	15.319	13.894	0.018214
266.50	2.9103	965.23	0.0010360	7.9739	8.1066	41.532	41.164	104.39	596.90	0.28428	112.40	0.11703	0.0057218	79.130	0.012637	17.483	19.102	82.790	36.546	70.753	215.47	15.242	13.936	0.018347
267.00	2.9509	962.52	0.0010389	8.0227	8.1577	41.716	41.186	104.86	592.46	0.29389	111.47	0.11644	0.0056266	80.388	0.012440	17.478	19.094	82.675	36.676	71.465	215.24	15.164	13.980	0.018482
267.50	2.9919	959.79	0.0010419	8.0717	8.2089	41.901	41.209	105.35	588.01	0.30371	110.54	0.11585	0.0055317	81.667	0.012245	17.473	19.085	82.559	36.807	72.197	215.00	15.087	14.023	0.018619
268.00	3.0334	957.04	0.0010449	8.1209	8.2604	42.086	41.234	105.84	583.54	0.31376	109.62	0.11526	0.0054372	82.965	0.012053	17.467	19.076	82.443	36.940	72.948	214.76	15.010	14.068	0.018760
268.50	3.0752	954.27	0.0010479	8.1702	8.3120	42.272	41.261	106.35	579.05	0.32405	108.70	0.11466	0.0053430	84.285	0.011865	17.461	19.067	82.326	37.073	73.720	214.51	14.933	14.113	0.018903
269.00	3.1175	951.48	0.0010510	8.2196	8.3638	42.457	41.289	106.88	574.54	0.33457	107.79	0.11407	0.0052491	85.626	0.011679	17.455	19.057	82.209	37.208	74.513	214.26	14.857	14.158	0.019050
269.50	3.1602	948.66	0.0010541	8.2693	8.4159	42.643	41.319	107.42	570.01	0.34535	106.88	0.11348	0.0051556	86.989	0.011496	17.448	19.047	82.091	37.345	75.329	214.01	14.780	14.204	0.019200
270.00	3.2033	945.83	0.0010573	8.3190	8.4681	42.829	41.351	107.98	565.46	0.35639	105.98	0.11289	0.0050624	88.374	0.011316	17.441	19.037	81.972	37.482	76.168	213.75	14.704	14.251	0.019353
270.50	3.2469	942.97	0.0010605	8.3690	8.5205	43.016	41.384	108.55	560.90	0.36769	105.08	0.11229	0.0049696	89.781	0.011138	17.434	19.026	81.853	37.621	77.031	213.49	14.628	14.298	0.019509
271.00	3.2909	940.09	0.0010637	8.4191	8.5731	43.202	41.419	109.14	556.32	0.37927	104.19	0.11170	0.0048771	91.213	0.010963	17.427	19.015	81.734	37.762	77.921	213.23	14.552	14.346	0.019669
